Sensor Model:   CX-1050-CU-HT-1.4L
Serial Number:  X93305
Interpolation Method:   Lagrangian
SetPoint Limit: 325.0      (Kelvin)
Data Format:    4      (Log Ohms/Kelvin)
Number of Breakpoints:   53

No.   Units      Temperature (K)

  1  1.84375       325.0
  2  1.84498       324.0
  3  1.86397       309.0
  4  1.88404       294.0
  5  1.90529       279.0
  6  1.92784       264.0
  7  1.95181       249.0
  8  1.97732       234.0
  9  2.00456       219.0
 10  2.03372       204.0
 11  2.06501       189.0
 12  2.09873       174.0
 13  2.13523       159.0
 14  2.17495       144.0
 15  2.21850       129.0
 16  2.26671       114.0
 17  2.32082        99.0
 18  2.38270        84.0
 19  2.45535        69.0
 20  2.50914        59.5
 21  2.57138        50.0
 22  2.60859        45.0
 23  2.64976        40.0
 24  2.69587        35.0
 25  2.74834        30.0
 26  2.80948        25.0
 27  2.86729        21.0
 28  2.92570        17.6
 29  2.98348        14.8
 30  3.04091        12.5
 31  3.09876        10.6
 32  3.15443         9.1
 33  3.21334         7.8
 34  3.26852         6.8
 35  3.32148         6.0
 36  3.37680         5.3
 37  3.43340         4.7
 38  3.48939         4.2
 39  3.54192         3.8
 40  3.60362         3.4
 41  3.65779         3.1
 42  3.69870         2.9
 43  3.74430         2.7
 44  3.79560         2.5
 45  3.85386         2.3
 46  3.88612         2.2
 47  3.92080         2.1
 48  3.95825         2.0
 49  3.99887         1.9
 50  4.04318         1.8
 51  4.09181         1.7
 52  4.20585         1.5
 53  4.27266         1.4
